#Z(m)	T(K)	P(N/m2)		rho(kg/m3)	a(m/s)
2200000	175.00	7.01048E-10	8.59048E-15	338.0097
2190000	175.00	7.35828E-10	9.04250E-15	337.5265
2180000	175.00	7.72600E-10	9.52224E-15	337.0325
2170000	175.00	8.11494E-10	1.00316E-14	336.5283
2160000	175.00	8.52651E-10	1.05728E-14	336.0119
2150000	175.00	8.96221E-10	1.11481E-14	335.4835
2140000	175.00	9.42367E-10	1.17598E-14	334.9455
2130000	175.00	9.91263E-10	1.24107E-14	334.3954
2120000	175.00	1.04310E-09	1.31036E-14	333.8349
2110000	175.00	1.09807E-09	1.38416E-14	333.2621
2100000	175.00	1.15640E-09	1.46281E-14	332.6780
2090000	175.00	1.21833E-09	1.54668E-14	332.0827
2080000	175.00	1.28411E-09	1.63615E-14	331.4771
2070000	175.00	1.35400E-09	1.73166E-14	330.8583
2060000	175.00	1.42832E-09	1.83367E-14	330.2297
2050000	175.00	1.50737E-09	1.94269E-14	329.5886
2040000	175.00	1.59151E-09	2.05926E-14	328.9373
2030000	175.00	1.68111E-09	2.18398E-14	328.2750
2020000	175.00	1.77658E-09	2.31750E-14	327.6020
2010000	175.00	1.87835E-09	2.46053E-14	326.9173
2000000	175.00	1.98690E-09	2.61383E-14	326.2221
1990000	175.00	2.10276E-09	2.77825E-14	325.5167
1980000	175.00	2.22648E-09	2.95468E-14	324.8016
1970000	175.00	2.35868E-09	3.14414E-14	324.0765
1960000	175.00	2.50001E-09	3.34772E-14	323.3407
1950000	175.00	2.65121E-09	3.56658E-14	322.5968
1940000	175.00	2.81305E-09	3.80205E-14	321.8428
1930000	175.00	2.98640E-09	4.05554E-14	321.0803
1920000	175.00	3.17218E-09	4.32859E-14	320.3094
1910000	175.00	3.37142E-09	4.62293E-14	319.5301
1900000	175.00	3.58523E-09	4.94039E-14	318.7439
1890000	175.00	3.81482E-09	5.28305E-14	317.9499
1880000	175.00	4.06152E-09	5.65312E-14	317.1496
1870000	175.00	4.32677E-09	6.05308E-14	316.3426
1860000	175.00	4.61216E-09	6.48563E-14	315.5296
1850000	175.00	4.91944E-09	6.95373E-14	314.7117
1840000	175.00	5.25049E-09	7.46065E-14	313.8886
1830000	175.00	5.60742E-09	8.00999E-14	313.0614
1820000	175.00	5.99250E-09	8.60569E-14	312.2304
1810000	175.00	6.40826E-09	9.25211E-14	311.3965
1800000	175.00	6.85745E-09	9.95405E-14	310.5599
1790000	175.00	7.34311E-09	1.07168E-13	309.7216
1780000	175.00	7.86857E-09	1.15462E-13	308.8818
1770000	175.00	8.43751E-09	1.24487E-13	308.0415
1760000	175.00	9.05397E-09	1.34315E-13	307.2001
1750000	175.00	9.72243E-09	1.45023E-13	306.3607
1740000	175.00	1.04478E-08	1.56699E-13	305.5226
1730000	175.00	1.12355E-08	1.69441E-13	304.6849
1720000	175.00	1.20915E-08	1.83353E-13	303.8506
1710000	175.00	1.30225E-08	1.98556E-13	303.0189
1700000	175.00	1.40358E-08	2.15179E-13	302.1918
1690000	175.00	1.51395E-08	2.33369E-13	301.3687
1680000	175.00	1.63425E-08	2.53287E-13	300.5501
1670000	175.00	1.76549E-08	2.75113E-13	299.7375
1660000	175.00	1.90877E-08	2.99046E-13	298.9316
1650000	175.00	2.06531E-08	3.25308E-13	298.1325
1640000	175.00	2.23647E-08	3.54147E-13	297.3403
1630000	175.00	2.42377E-08	3.85837E-13	296.5567
1620000	175.00	2.62887E-08	4.20684E-13	295.7812
1610000	175.00	2.85366E-08	4.59032E-13	295.0147
1600000	175.00	3.10021E-08	5.01260E-13	294.2578
1590000	175.00	3.37083E-08	5.47794E-13	293.5106
1580000	175.00	3.66813E-08	5.99110E-13	292.7744
1570000	175.00	3.99496E-08	6.55739E-13	292.0483
1560000	175.00	4.35456E-08	7.18274E-13	291.3339
1550000	175.00	4.75053E-08	7.87381E-13	290.6314
1540000	175.00	5.18686E-08	8.63804E-13	289.9404
1530000	175.00	5.66807E-08	9.48378E-13	289.2617
1520000	175.00	6.19919E-08	1.04204E-12	288.5953
1510000	175.00	6.78584E-08	1.14583E-12	287.9425
1500000	175.00	7.43434E-08	1.26093E-12	287.3027
1490000	175.00	8.15179E-08	1.38867E-12	286.6758
1480000	175.00	8.94612E-08	1.53053E-12	286.0622
1470000	175.00	9.82627E-08	1.68818E-12	285.4625
1460000	175.00	1.08023E-07	1.86351E-12	284.8763
1450000	175.00	1.18854E-07	2.05863E-12	284.3032
1440000	175.00	1.30884E-07	2.27593E-12	283.7448
1430000	175.00	1.44256E-07	2.51810E-12	283.2008
1420000	175.00	1.59130E-07	2.78819E-12	282.6694
1410000	175.00	1.75688E-07	3.08961E-12	282.1521
1400000	175.00	1.94136E-07	3.42624E-12	281.6490
1390000	175.00	2.14706E-07	3.80247E-12	281.1598
1380000	175.00	2.37658E-07	4.22325E-12	280.6835
1370000	175.00	2.63290E-07	4.69417E-12	280.2217
1360000	175.00	2.91936E-07	5.22161E-12	279.7729
1350000	175.00	3.23975E-07	5.81276E-12	279.3371
1340000	175.00	3.59838E-07	6.47577E-12	278.9150
1330000	175.00	4.00011E-07	7.21993E-12	278.5053
1320000	175.00	4.45049E-07	8.05577E-12	278.1086
1310000	175.00	4.95578E-07	8.99523E-12	277.7243
1300000	175.00	5.52055E-07	1.00487E-11	277.3322
1295000	175.00	5.82989E-07	1.06235E-11	277.1790
1290000	175.00	6.15777E-07	1.12331E-11	277.0294
1285000	175.00	6.50541E-07	1.18797E-11	276.8845
1280000	175.00	6.87407E-07	1.25659E-11	276.7414
1275000	175.00	7.26507E-07	1.32940E-11	276.6025
1270000	175.00	7.67981E-07	1.40668E-11	276.4659
1265000	175.00	8.11988E-07	1.48872E-11	276.3327
1260000	175.00	8.58683E-07	1.57582E-11	276.2022
1255000	175.00	9.08244E-07	1.66831E-11	276.0749
1250000	175.00	9.60856E-07	1.76655E-11	275.9499
1245000	175.00	1.01672E-06	1.87090E-11	275.8287
1240000	175.00	1.07603E-06	1.98176E-11	275.7088
1235000	175.00	1.13904E-06	2.09957E-11	275.5931
1230000	175.00	1.20597E-06	2.22478E-11	275.4791
1225000	175.00	1.27709E-06	2.35789E-11	275.3677
1220000	175.00	1.35267E-06	2.49941E-11	275.2588
1215000	175.00	1.43300E-06	2.64989E-11	275.1523
1210000	175.00	1.51841E-06	2.80994E-11	275.0490
1205000	175.00	1.60922E-06	2.98020E-11	274.9470
1200000	175.00	1.70579E-06	3.16133E-11	274.8476
1195000	175.00	1.80851E-06	3.35407E-11	274.7505
1190000	175.00	1.91780E-06	3.55923E-11	274.6551
1185000	175.00	2.03410E-06	3.77762E-11	274.5624
1180000	175.00	2.15786E-06	4.01013E-11	274.4710
1175000	175.00	2.28961E-06	4.25772E-11	274.3824
1170000	175.00	2.42988E-06	4.52142E-11	274.2957
1165000	175.00	2.57924E-06	4.80233E-11	274.2104
1160000	175.00	2.73833E-06	5.10162E-11	274.1277
1155000	175.00	2.90780E-06	5.42056E-11	274.0465
1150000	175.00	3.08837E-06	5.76052E-11	273.9667
1145000	175.00	3.28079E-06	6.12292E-11	273.8886
1140000	175.00	3.48588E-06	6.50930E-11	273.8124
1135000	175.00	3.70454E-06	6.92137E-11	273.7380
1130000	175.00	3.93768E-06	7.36082E-11	273.6662
1125000	175.00	4.18631E-06	7.82969E-11	273.5945
1120000	175.00	4.45155E-06	8.32999E-11	273.5252
1115000	175.00	4.73451E-06	8.86386E-11	273.4577
1110000	175.00	5.03644E-06	9.43373E-11	273.3909
1105000	175.00	5.35869E-06	1.00421E-10	273.3261
1100000	175.00	5.70269E-06	1.06917E-10	273.2628
1095000	175.00	6.06999E-06	1.13855E-10	273.2008
1090000	175.00	6.46219E-06	1.21266E-10	273.1394
1085000	175.00	6.88114E-06	1.29183E-10	273.0810
1080000	175.00	7.32872E-06	1.37645E-10	273.0221
1075000	175.00	7.80692E-06	1.46687E-10	272.9657
1070000	175.00	8.31797E-06	1.56354E-10	272.9092
1065000	175.00	8.86427E-06	1.66689E-10	272.8551
1060000	175.00	9.44835E-06	1.77741E-10	272.8024
1055000	175.00	1.00729E-05	1.89563E-10	272.7498
1050000	175.00	1.07410E-05	2.02210E-10	272.7000
1045000	175.00	1.14556E-05	2.15742E-10	272.6501
1040000	175.00	1.22203E-05	2.30226E-10	272.6012
1035000	175.00	1.30386E-05	2.45727E-10	272.5543
1030000	175.00	1.39145E-05	2.62326E-10	272.5067
1025000	175.00	1.48523E-05	2.80098E-10	272.4620
1020000	175.00	1.58564E-05	2.99133E-10	272.4170
1015000	175.00	1.69320E-05	3.19525E-10	272.3740
1010000	175.00	1.80841E-05	3.41373E-10	272.3315
1005000	175.00	1.93185E-05	3.64786E-10	272.2900
1000000	175.00	2.06414E-05	3.89884E-10	272.2487
995000	175.00	2.20596E-05	4.16792E-10	272.2094
990000	175.00	2.35800E-05	4.45645E-10	272.1707
985000	175.00	2.52103E-05	4.76591E-10	272.1323
980000	175.00	2.69590E-05	5.09787E-10	272.0956
975000	175.00	2.88351E-05	5.45413E-10	272.0583
970000	175.00	3.08480E-05	5.83636E-10	272.0235
965000	175.00	3.30083E-05	6.24669E-10	271.9885
960000	175.00	3.53272E-05	6.68719E-10	271.9548
955000	175.00	3.78169E-05	7.16022E-10	271.9217
950000	175.00	4.04908E-05	7.66831E-10	271.8895
945000	175.00	4.33626E-05	8.21411E-10	271.8576
940000	175.00	4.64481E-05	8.80058E-10	271.8268
935000	175.00	4.97636E-05	9.43086E-10	271.7968
930000	175.00	5.33268E-05	1.01083E-09	271.7676
925000	175.00	5.71574E-05	1.08368E-09	271.7376
920000	174.98	6.12765E-05	1.16214E-09	271.6951
915000	174.94	6.57074E-05	1.24672E-09	271.6356
910000	174.86	7.04754E-05	1.33806E-09	271.5470
905000	174.76	7.56084E-05	1.43662E-09	271.4427
900000	174.63	8.11367E-05	1.54310E-09	271.3162
895000	174.48	8.70925E-05	1.65810E-09	271.1746
890000	174.29	9.35128E-05	1.78260E-09	271.0021
885000	174.08	1.00436E-04	1.91723E-09	270.8143
880000	173.85	1.07906E-04	2.06290E-09	270.6124
875000	173.58	1.15969E-04	2.22086E-09	270.3799
870000	173.30	1.24675E-04	2.39184E-09	270.1392
865000	172.98	1.34083E-04	2.57751E-09	269.8676
860000	172.65	1.44252E-04	2.77873E-09	269.5887
855000	172.28	1.55250E-04	2.99747E-09	269.2789
850000	171.90	1.67152E-04	3.23488E-09	268.9619
845000	171.49	1.80037E-04	3.49309E-09	268.6210
840000	171.05	1.93996E-04	3.77414E-09	268.2572
835000	170.60	2.09126E-04	4.07978E-09	267.8858
830000	170.12	2.25535E-04	4.41292E-09	267.4903
825000	169.61	2.43341E-04	4.77628E-09	267.0710
820000	169.09	2.62675E-04	5.17229E-09	266.6441
815000	168.55	2.83681E-04	5.60452E-09	266.2012
810000	167.98	3.06517E-04	6.07696E-09	265.7346
805000	167.39	3.31360E-04	6.59348E-09	265.2508
800000	166.79	3.58400E-04	7.15805E-09	264.7590
795000	166.16	3.87856E-04	7.77658E-09	264.2439
790000	165.51	4.19962E-04	8.45437E-09	263.7111
785000	164.85	4.54983E-04	9.19701E-09	263.1711
780000	164.17	4.93206E-04	1.00121E-08	262.6126
775000	163.47	5.34956E-04	1.09072E-08	262.0393
770000	162.75	5.80591E-04	1.18912E-08	261.4486
765000	162.02	6.30510E-04	1.29731E-08	260.8484
760000	161.27	6.85157E-04	1.41644E-08	260.2316
755000	160.51	7.45028E-04	1.54766E-08	259.6047
750000	159.74	8.10661E-04	1.69226E-08	258.9704
745000	158.95	8.82670E-04	1.85191E-08	258.3172
740000	158.15	9.61746E-04	2.02820E-08	257.6551
735000	157.33	1.04864E-03	2.22318E-08	256.9744
730000	156.51	1.14422E-03	2.43871E-08	256.2942
725000	155.68	1.24942E-03	2.67735E-08	255.6028
720000	154.84	1.36533E-03	2.94181E-08	254.9033
715000	153.99	1.49312E-03	3.23517E-08	254.1926
710000	153.14	1.63414E-03	3.56065E-08	253.4802
705000	152.28	1.78990E-03	3.92234E-08	252.7585
700000	151.42	1.96207E-03	4.32435E-08	252.0350
695000	150.56	2.15254E-03	4.77157E-08	251.3095
690000	149.70	2.36345E-03	5.26953E-08	250.5828
685000	148.84	2.59719E-03	5.82452E-08	249.8537
680000	147.99	2.85644E-03	6.44313E-08	249.1312
675000	147.14	3.14425E-03	7.13375E-08	248.4069
670000	146.29	3.46404E-03	7.90543E-08	247.6810
665000	145.46	3.81965E-03	8.76728E-08	246.9695
660000	144.64	4.21541E-03	9.73102E-08	246.2662
655000	143.83	4.65620E-03	1.08097E-07	245.5687
650000	143.04	5.14758E-03	1.20172E-07	244.8860
645000	142.27	5.69572E-03	1.33695E-07	244.2197
640000	141.52	6.30771E-03	1.48853E-07	243.5685
635000	140.79	6.99147E-03	1.65851E-07	242.9345
630000	140.09	7.75595E-03	1.84915E-07	242.3235
625000	139.43	8.61116E-03	2.06286E-07	241.7464
620000	138.79	9.56857E-03	2.30289E-07	241.1854
615000	138.19	1.06411E-02	2.57225E-07	240.6582
610000	137.64	1.18430E-02	2.87434E-07	240.1739
605000	137.12	1.31907E-02	3.21372E-07	239.7143
600000	136.65	1.47026E-02	3.59453E-07	239.2985
595000	136.24	1.63993E-02	4.02156E-07	238.9348
590000	135.87	1.83039E-02	4.50102E-07	238.6055
585000	135.57	2.04423E-02	5.03820E-07	238.3368
580000	135.33	2.28437E-02	5.64023E-07	238.1216
575000	135.15	2.55408E-02	6.31477E-07	237.9592
570000	135.04	2.85700E-02	7.06973E-07	237.8580
565000	135.00	3.19721E-02	7.91418E-07	237.8190
560000	135.05	3.57919E-02	8.85674E-07	237.8589
555000	135.22	4.00790E-02	9.90543E-07	238.0048
550000	135.49	4.48879E-02	1.10722E-06	238.2384
545000	135.85	5.02790E-02	1.23694E-06	238.5520
540000	136.32	5.63186E-02	1.38078E-06	238.9614
535000	136.87	6.30800E-02	1.54039E-06	239.4388
530000	137.50	7.06450E-02	1.71727E-06	239.9857
525000	138.22	7.91021E-02	1.91288E-06	240.6103
520000	139.01	8.85497E-02	2.12923E-06	241.2939
515000	139.86	9.90957E-02	2.36838E-06	242.0281
510000	140.78	1.10860E-01	2.63231E-06	242.8192
505000	141.75	1.23973E-01	2.92359E-06	243.6516
500000	142.78	1.38578E-01	3.24451E-06	244.5325
495000	143.85	1.54834E-01	3.59823E-06	245.4442
490000	144.96	1.72915E-01	3.98773E-06	246.3868
485000	146.10	1.93011E-01	4.41655E-06	247.3509
480000	147.28	2.15334E-01	4.88797E-06	248.3454
475000	148.48	2.40113E-01	5.40647E-06	249.3532
470000	149.70	2.67602E-01	5.97644E-06	250.3730
465000	150.93	2.98082E-01	6.60301E-06	251.3975
460000	152.18	3.31857E-01	7.29096E-06	252.4336
455000	153.43	3.69265E-01	8.04685E-06	253.4662
450000	154.69	4.10677E-01	8.87650E-06	254.5032
445000	155.94	4.56503E-01	9.78806E-06	255.5274
440000	157.19	5.07189E-01	1.07886E-05	256.5467
435000	158.44	5.63229E-01	1.18863E-05	257.5628
430000	159.67	6.25165E-01	1.30918E-05	258.5602
425000	160.88	6.93605E-01	1.44161E-05	259.5352
420000	162.08	7.69207E-01	1.58692E-05	260.5002
415000	163.25	8.52700E-01	1.74659E-05	261.4368
410000	164.40	9.44891E-01	1.92191E-05	262.3544
405000	165.52	1.04667E+00	2.11455E-05	263.2449
400000	166.61	1.15902E+00	2.32623E-05	264.1090
395000	167.66	1.28303E+00	2.55904E-05	264.9378
390000	168.68	1.41991E+00	2.81495E-05	265.7413
385000	169.66	1.57098E+00	3.09649E-05	266.5106
380000	170.60	1.73773E+00	3.40633E-05	267.2464
375000	171.49	1.92179E+00	3.74762E-05	267.9410
370000	172.33	2.12500E+00	4.12373E-05	268.5953
365000	173.12	2.34939E+00	4.53840E-05	269.2094
360000	173.85	2.59722E+00	4.99610E-05	269.7757
355000	174.53	2.87100E+00	5.50130E-05	270.3012
350000	175.15	3.17355E+00	6.05956E-05	270.7797
345000	175.71	3.50799E+00	6.67686E-05	271.2108
340000	176.21	3.87785E+00	7.35994E-05	271.5954
335000	176.65	4.28704E+00	8.11633E-05	271.9336
330000	177.03	4.73993E+00	8.95456E-05	272.2249
325000	177.36	5.24144E+00	9.88365E-05	272.4775
320000	177.63	5.79703E+00	1.09148E-04	272.6835
315000	177.85	6.41286E+00	1.20594E-04	272.8519
310000	178.01	7.09582E+00	1.33318E-04	272.9738
305000	178.13	7.85365E+00	1.47458E-04	273.0647
300000	178.19	8.69509E+00	1.63203E-04	273.1096
295000	178.21	9.62986E+00	1.80729E-04	273.1241
290000	178.17	1.06690E+01	2.00276E-04	273.0935
285000	178.09	1.18249E+01	2.22076E-04	273.0310
280000	177.97	1.31115E+01	2.46406E-04	272.9384
275000	177.80	1.45446E+01	2.73602E-04	272.8069
270000	177.58	1.61421E+01	3.04030E-04	272.6376
265000	177.32	1.79242E+01	3.38091E-04	272.4376
260000	177.02	1.99138E+01	3.76258E-04	272.2063
255000	176.68	2.21365E+01	4.19061E-04	271.9442
250000	176.30	2.46220E+01	4.67119E-04	271.6514
245000	175.88	2.74035E+01	5.21133E-04	271.3268
240000	175.42	3.05190E+01	5.81903E-04	270.9717
235000	174.92	3.40119E+01	6.50361E-04	270.5841
230000	174.39	3.79313E+01	7.27513E-04	270.1733
225000	173.82	4.23336E+01	8.14610E-04	269.7316
220000	173.21	4.72830E+01	9.13060E-04	269.2569
215000	172.58	5.28531E+01	1.02435E-03	268.7665
210000	171.91	5.91280E+01	1.15043E-03	268.2443
205000	171.21	6.62042E+01	1.29338E-03	267.6971
200000	170.48	7.41926E+01	1.45566E-03	267.1249
198000	170.18	7.76717E+01	1.52661E-03	266.8894
196000	169.88	8.13254E+01	1.60124E-03	266.6545
194000	169.57	8.51639E+01	1.67989E-03	266.4105
192000	169.26	8.91971E+01	1.76268E-03	266.1660
190000	168.94	9.34352E+01	1.84992E-03	265.9150
188000	168.62	9.78904E+01	1.94181E-03	265.6628
186000	168.30	1.02574E+02	2.03858E-03	265.4109
184000	167.97	1.07499E+02	2.14066E-03	265.1505
182000	167.64	1.12678E+02	2.24822E-03	264.8892
180000	167.30	1.18125E+02	2.36170E-03	264.6199
178000	166.96	1.23857E+02	2.48133E-03	264.3517
176000	166.62	1.29888E+02	2.60748E-03	264.0815
174000	166.27	1.36236E+02	2.74068E-03	263.8036
172000	165.92	1.42919E+02	2.88118E-03	263.5262
170000	165.57	1.49955E+02	3.02942E-03	263.2478
168000	165.22	1.57364E+02	3.18584E-03	262.9691
166000	164.86	1.65168E+02	3.35115E-03	262.6818
164000	164.50	1.73390E+02	3.52567E-03	262.3948
162000	164.14	1.82053E+02	3.70994E-03	262.1075
160000	163.77	1.91185E+02	3.90484E-03	261.8119
158000	163.41	2.00810E+02	4.11046E-03	261.5240
156000	163.04	2.10958E+02	4.32799E-03	261.2275
154000	162.67	2.21660E+02	4.55789E-03	260.9311
152000	162.29	2.32948E+02	4.80123E-03	260.6257
150000	161.92	2.44858E+02	5.05844E-03	260.3232
148000	161.50	2.57426E+02	5.33195E-03	259.9843
146000	160.26	2.70730E+02	5.65090E-03	258.9843
144000	160.79	2.84775E+02	5.92445E-03	259.4125
142000	159.36	2.99615E+02	6.28909E-03	258.2569
140000	158.55	3.15363E+02	6.65350E-03	257.5991
138000	158.25	3.32022E+02	7.01824E-03	257.3554
136000	157.45	3.49653E+02	7.42851E-03	256.7035
134000	157.18	3.68311E+02	7.83838E-03	256.4828
132000	156.51	3.88057E+02	8.29394E-03	255.9360
130000	156.34	4.08949E+02	8.74999E-03	255.7966
128000	155.11	4.31102E+02	9.29714E-03	254.7882
126000	153.80	4.54691E+02	9.88939E-03	253.7099
124000	153.11	4.79771E+02	1.04819E-02	253.1401
122000	151.73	5.06461E+02	1.11658E-02	251.9951
120000	151.00	5.34882E+02	1.18493E-02	251.3892
118000	150.28	5.65091E+02	1.25786E-02	250.7882
116000	149.61	5.97207E+02	1.33530E-02	250.2287
114000	149.01	6.31351E+02	1.41733E-02	249.7261
112000	148.06	6.67692E+02	1.50854E-02	248.9280
110000	147.31	7.06415E+02	1.60416E-02	248.2962
108000	146.73	7.47638E+02	1.70448E-02	247.8071
106000	145.98	7.91538E+02	1.81384E-02	247.1727
104000	144.47	8.38462E+02	1.94146E-02	245.8904
102000	143.37	8.88706E+02	2.07360E-02	244.9518
100000	142.06	9.42505E+02	2.21942E-02	243.8294
98000	140.91	1.00016E+03	2.37442E-02	242.8399
96000	139.70	1.06197E+03	2.54301E-02	241.7943
94000	138.05	1.12841E+03	2.73441E-02	240.3619
92000	136.15	1.20004E+03	2.94862E-02	238.7000
90000	134.90	1.27727E+03	3.16747E-02	237.6015
88000	134.20	1.36020E+03	3.39076E-02	236.9828
86000	132.19	1.44959E+03	3.66858E-02	235.2002
84000	129.47	1.54678E+03	3.99685E-02	232.7659
82000	126.41	1.65310E+03	4.37505E-02	229.9969
80000	123.61	1.76964E+03	4.78968E-02	227.4329
78000	120.42	1.89778E+03	5.27270E-02	224.4763
76000	117.51	2.03909E+03	5.80578E-02	221.7440
74000	114.55	2.19514E+03	6.41182E-02	218.9296
72000	109.90	2.36939E+03	7.21402E-02	214.4340
70000	103.94	2.56757E+03	8.26644E-02	208.5287
68000	98.37	2.79547E+03	9.51084E-02	202.8533
66000	91.37	3.06143E+03	1.12156E-01	195.4857
64000	84.71	3.37700E+03	1.33477E-01	188.2029
62000	79.89	3.75116E+03	1.57257E-01	182.7434
60000	76.87	4.18934E+03	1.82582E-01	179.2288
58000	74.56	4.69787E+03	2.11160E-01	176.4854
56000	73.05	5.28480E+03	2.42539E-01	174.6576
54000	72.21	5.95777E+03	2.76707E-01	173.6184
52000	71.70	6.72543E+03	3.14707E-01	172.9700
50000	71.33	7.59954E+03	3.57613E-01	172.4849
48000	71.11	8.59368E+03	4.05844E-01	172.1766
46000	70.93	9.72368E+03	4.60630E-01	171.9108
44000	70.84	1.10077E+04	5.22440E-01	171.7490
42000	70.64	1.24678E+04	5.93850E-01	171.4433
40000	70.66	1.41281E+04	6.73269E-01	171.4003
38000	70.91	1.60100E+04	7.60891E-01	171.6321
36000	71.17	1.81402E+04	8.59775E-01	171.8671
34000	71.41	2.05511E+04	9.71790E-01	172.0661
32000	71.81	2.32773E+04	1.09579E+00	172.4514
30000	72.34	2.63523E+04	1.23292E+00	172.9840
28000	72.92	2.98158E+04	1.38566E+00	173.5637
26000	73.68	3.37082E+04	1.55246E+00	174.3499
24000	74.55	3.80709E+04	1.73534E+00	175.2541
22000	75.63	4.29453E+04	1.93224E+00	176.3970
20000	76.43	4.83893E+04	2.15804E+00	177.1777
18000	77.59	5.44610E+04	2.39627E+00	178.3770
16000	78.88	6.12041E+04	2.65314E+00	179.7108
14000	80.19	6.86757E+04	2.93332E+00	181.0447
12000	81.56	7.69415E+04	3.23680E+00	182.4259
10000	83.01	8.60656E+04	3.56371E+00	183.8771
8000	84.72	9.61034E+04	3.90534E+00	185.6111
6000	86.47	1.07110E+05	4.27160E+00	187.3630
5000	87.40	1.12997E+05	4.46201E+00	188.2921
4000	88.20	1.19156E+05	4.66698E+00	189.0619
3000	89.26	1.25591E+05	4.86398E+00	190.1286
2000	90.54	1.32292E+05	5.05341E+00	191.4426
1500	91.22	1.35742E+05	5.14748E+00	192.1427
1000	91.90	1.39255E+05	5.24261E+00	192.8393
500		92.58	1.42835E+05	5.33888E+00	193.5335
0		93.28	1.46482E+05	5.43503E+00	194.2474
